ns                  t [s]               T [K]               Xfront [mm]         sdot [mm/s]         omega_dot [kg/m^2s] mdot_w [kg/m^2s]    
1                   0                   297                 0                   0                   0                   0                   
1                   1e-06               303.625             3.1953e-08          0.031953            0.0316335           0.0316335           
2                   2e-06               304.627             6.60127e-08         0.0340597           0.0337191           0.0337191           
3                   3e-06               305.555             1.02134e-07         0.0361216           0.0357604           0.0357604           
4                   4e-06               306.42              1.40277e-07         0.0381427           0.0377613           0.0377613           
5                   5e-06               307.23              1.80404e-07         0.0401269           0.0397257           0.0397257           
6                   6e-06               307.992             2.22482e-07         0.0420783           0.0416575           0.0416575           
7                   7e-06               308.713             2.66483e-07         0.0440007           0.0435607           0.0435607           
8                   8e-06               309.397             3.12381e-07         0.0458975           0.0454385           0.0454385           
9                   9e-06               310.048             3.60152e-07         0.047772            0.0472942           0.0472942           
10                  1e-05               310.671             4.0978e-07          0.0496272           0.0491309           0.0491309           
11                  1.1e-05             311.268             4.61245e-07         0.0514658           0.0509511           0.0509511           
12                  1.2e-05             311.841             5.14536e-07         0.0532902           0.0527573           0.0527573           
13                  1.3e-05             312.394             5.69638e-07         0.0551025           0.0545515           0.0545515           
14                  1.4e-05             312.928             6.26543e-07         0.0569048           0.0563357           0.0563357           
15                  1.5e-05             313.444             6.85241e-07         0.0586986           0.0581116           0.0581116           
16                  1.6e-05             313.945             7.45727e-07         0.0604854           0.0598806           0.0598806           
17                  1.7e-05             314.431             8.07994e-07         0.0622667           0.0616441           0.0616441           
18                  1.8e-05             314.903             8.72037e-07         0.0640437           0.0634032           0.0634032           
19                  1.9e-05             315.364             9.37854e-07         0.0658172           0.0651591           0.0651591           
20                  2e-05               315.812             1.00544e-06         0.0675885           0.0669126           0.0669126           
21                  2.1e-05             316.25              1.0748e-06          0.0693581           0.0686646           0.0686646           
22                  2.2e-05             316.678             1.14593e-06         0.071127            0.0704158           0.0704158           
23                  2.3e-05             317.096             1.21882e-06         0.0728958           0.0721669           0.0721669           
24                  2.4e-05             317.506             1.29349e-06         0.0746651           0.0739185           0.0739185           
25                  2.5e-05             317.907             1.36992e-06         0.0764355           0.0756711           0.0756711           
26                  2.6e-05             318.301             1.44813e-06         0.0782074           0.0774253           0.0774253           
27                  2.7e-05             318.686             1.52811e-06         0.0799813           0.0791815           0.0791815           
28                  2.8e-05             319.065             1.60987e-06         0.0817576           0.08094             0.08094             
29                  2.9e-05             319.437             1.69341e-06         0.0835366           0.0827012           0.0827012           
30                  3e-05               319.803             1.77873e-06         0.0853187           0.0844655           0.0844655           
31                  3.1e-05             320.163             1.86583e-06         0.0871042           0.0862332           0.0862332           
32                  3.2e-05             320.517             1.95472e-06         0.0888934           0.0880044           0.0880044           
33                  3.3e-05             320.865             2.04541e-06         0.0906865           0.0897796           0.0897796           
34                  3.4e-05             321.208             2.13789e-06         0.0924837           0.0915589           0.0915589           
35                  3.5e-05             321.546             2.23218e-06         0.0942853           0.0933425           0.0933425           
36                  3.6e-05             321.879             2.32827e-06         0.0960915           0.0951305           0.0951305           
37                  3.7e-05             322.208             2.42617e-06         0.0979024           0.0969233           0.0969233           
38                  3.8e-05             322.532             2.52589e-06         0.0997181           0.098721            0.098721            
39                  3.9e-05             322.851             2.62743e-06         0.101539            0.100524            0.100524            
40                  4e-05               323.166             2.7308e-06          0.103365            0.102331            0.102331            
41                  4.1e-05             323.478             2.83599e-06         0.105196            0.104144            0.104144            
42                  4.2e-05             323.785             2.94302e-06         0.107033            0.105963            0.105963            
43                  4.3e-05             324.089             3.0519e-06          0.108876            0.107787            0.107787            
44                  4.4e-05             324.389             3.16262e-06         0.110724            0.109616            0.109616            
45                  4.5e-05             324.686             3.2752e-06          0.112577            0.111452            0.111452            
46                  4.6e-05             324.979             3.38964e-06         0.114437            0.113293            0.113293            
47                  4.7e-05             325.269             3.50594e-06         0.116302            0.115139            0.115139            
48                  4.8e-05             325.555             3.62411e-06         0.118174            0.116992            0.116992            
49                  4.9e-05             325.839             3.74417e-06         0.120052            0.118851            0.118851            
50                  5e-05               326.119             3.8661e-06          0.121935            0.120716            0.120716            
51                  5.1e-05             326.397             3.98993e-06         0.123825            0.122587            0.122587            
52                  5.2e-05             326.672             4.11565e-06         0.125721            0.124464            0.124464            
53                  5.3e-05             326.944             4.24327e-06         0.127624            0.126348            0.126348            
54                  5.4e-05             327.213             4.37281e-06         0.129533            0.128237            0.128237            
55                  5.5e-05             327.48              4.50425e-06         0.131448            0.130133            0.130133            
56                  5.6e-05             327.744             4.63762e-06         0.133369            0.132036            0.132036            
57                  5.7e-05             328.005             4.77292e-06         0.135298            0.133945            0.133945            
58                  5.8e-05             328.265             4.91015e-06         0.137232            0.13586             0.13586             
59                  5.9e-05             328.522             5.04933e-06         0.139173            0.137782            0.137782            
60                  6e-05               328.776             5.19045e-06         0.141121            0.13971             0.13971             
61                  6.1e-05             329.028             5.33352e-06         0.143075            0.141645            0.141645            
62                  6.2e-05             329.278             5.47856e-06         0.145036            0.143586            0.143586            
63                  6.3e-05             329.526             5.62556e-06         0.147004            0.145534            0.145534            
64                  6.4e-05             329.772             5.77454e-06         0.148978            0.147488            0.147488            
65                  6.5e-05             330.016             5.9255e-06          0.150959            0.14945             0.14945             
66                  6.6e-05             330.257             6.07845e-06         0.152947            0.151417            0.151417            
67                  6.7e-05             330.497             6.23339e-06         0.154941            0.153392            0.153392            
68                  6.8e-05             330.735             6.39033e-06         0.156942            0.155373            0.155373            
69                  6.9e-05             330.971             6.54928e-06         0.15895             0.15736             0.15736             
70                  7e-05               331.205             6.71024e-06         0.160964            0.159355            0.159355            
71                  7.1e-05             331.437             6.87323e-06         0.162986            0.161356            0.161356            
72                  7.2e-05             331.667             7.03824e-06         0.165014            0.163364            0.163364            
73                  7.3e-05             331.896             7.20529e-06         0.167048            0.165378            0.165378            
74                  7.4e-05             332.123             7.37438e-06         0.16909             0.167399            0.167399            
75                  7.5e-05             332.348             7.54552e-06         0.171138            0.169427            0.169427            
76                  7.6e-05             332.572             7.71871e-06         0.173193            0.171462            0.171462            
77                  7.7e-05             332.794             7.89397e-06         0.175255            0.173503            0.173503            
78                  7.8e-05             333.015             8.07129e-06         0.177324            0.175551            0.175551            
79                  7.9e-05             333.233             8.25069e-06         0.179399            0.177605            0.177605            
80                  8e-05               333.451             8.43217e-06         0.181482            0.179667            0.179667            
81                  8.1e-05             333.667             8.61574e-06         0.183571            0.181735            0.181735            
82                  8.2e-05             333.881             8.80141e-06         0.185666            0.18381             0.18381             
83                  8.3e-05             334.094             8.98918e-06         0.187769            0.185891            0.185891            
84                  8.4e-05             334.305             9.17906e-06         0.189878            0.187979            0.187979            
85                  8.5e-05             334.515             9.37105e-06         0.191994            0.190074            0.190074            
86                  8.6e-05             334.724             9.56517e-06         0.194117            0.192176            0.192176            
87                  8.7e-05             334.931             9.76141e-06         0.196246            0.194284            0.194284            
88                  8.8e-05             335.137             9.9598e-06          0.198382            0.196398            0.196398            
89                  8.9e-05             335.342             1.01603e-05         0.200525            0.19852             0.19852             
90                  9e-05               335.545             1.0363e-05          0.202675            0.200648            0.200648            
91                  9.1e-05             335.747             1.05678e-05         0.204831            0.202783            0.202783            
92                  9.2e-05             335.948             1.07748e-05         0.206994            0.204924            0.204924            
93                  9.3e-05             336.147             1.0984e-05          0.209164            0.207072            0.207072            
94                  9.4e-05             336.346             1.11953e-05         0.21134             0.209227            0.209227            
95                  9.5e-05             336.543             1.14088e-05         0.213523            0.211388            0.211388            
96                  9.6e-05             336.739             1.16246e-05         0.215712            0.213555            0.213555            
97                  9.7e-05             336.934             1.18425e-05         0.217909            0.21573             0.21573             
98                  9.8e-05             337.127             1.20626e-05         0.220111            0.21791             0.21791             
99                  9.9e-05             337.32              1.22849e-05         0.222321            0.220098            0.220098            
100                 0.0001              337.511             1.25094e-05         0.224537            0.222291            0.222291            
101                 0.000101            337.701             1.27362e-05         0.226759            0.224492            0.224492            
102                 0.000102            337.89              1.29652e-05         0.228988            0.226698            0.226698            
103                 0.000103            338.078             1.31964e-05         0.231224            0.228912            0.228912            
104                 0.000104            338.265             1.34299e-05         0.233466            0.231131            0.231131            
105                 0.000105            338.451             1.36656e-05         0.235715            0.233357            0.233357            
106                 0.000106            338.636             1.39036e-05         0.23797             0.23559             0.23559             
107                 0.000107            338.82              1.41438e-05         0.240231            0.237829            0.237829            
108                 0.000108            339.003             1.43863e-05         0.242499            0.240074            0.240074            
109                 0.000109            339.185             1.46311e-05         0.244774            0.242326            0.242326            
110                 0.00011             339.365             1.48781e-05         0.247054            0.244584            0.244584            
111                 0.000111            339.545             1.51275e-05         0.249342            0.246848            0.246848            
112                 0.000112            339.724             1.53791e-05         0.251635            0.249119            0.249119            
113                 0.000113            339.902             1.5633e-05          0.253935            0.251396            0.251396            
114                 0.000114            340.079             1.58893e-05         0.256241            0.253679            0.253679            
115                 0.000115            340.255             1.61478e-05         0.258554            0.255968            0.255968            
116                 0.000116            340.431             1.64087e-05         0.260872            0.258264            0.258264            
117                 0.000117            340.605             1.66719e-05         0.263197            0.260565            0.260565            
118                 0.000118            340.778             1.69374e-05         0.265529            0.262873            0.262873            
119                 0.000119            340.951             1.72053e-05         0.267866            0.265188            0.265188            
120                 0.00012             341.122             1.74755e-05         0.27021             0.267508            0.267508            
121                 0.000121            341.293             1.77481e-05         0.27256             0.269834            0.269834            
122                 0.000122            341.463             1.8023e-05          0.274916            0.272167            0.272167            
123                 0.000123            341.632             1.83003e-05         0.277278            0.274505            0.274505            
124                 0.000124            341.8               1.85799e-05         0.279646            0.27685             0.27685             
125                 0.000125            341.968             1.88619e-05         0.28202             0.2792              0.2792              
126                 0.000126            342.134             1.91463e-05         0.284401            0.281557            0.281557            
127                 0.000127            342.3               1.94331e-05         0.286787            0.283919            0.283919            
128                 0.000128            342.465             1.97223e-05         0.28918             0.286288            0.286288            
129                 0.000129            342.629             2.00139e-05         0.291578            0.288662            0.288662            
130                 0.00013             342.792             2.03078e-05         0.293982            0.291043            0.291043            
131                 0.000131            342.955             2.06042e-05         0.296393            0.293429            0.293429            
132                 0.000132            343.117             2.0903e-05          0.298809            0.295821            0.295821            
133                 0.000133            343.278             2.12043e-05         0.301231            0.298219            0.298219            
134                 0.000134            343.438             2.15079e-05         0.303659            0.300622            0.300622            
135                 0.000135            343.597             2.1814e-05          0.306093            0.303032            0.303032            
136                 0.000136            343.756             2.21226e-05         0.308532            0.305447            0.305447            
137                 0.000137            343.914             2.24335e-05         0.310978            0.307868            0.307868            
138                 0.000138            344.072             2.2747e-05          0.313429            0.310295            0.310295            
139                 0.000139            344.228             2.30629e-05         0.315886            0.312727            0.312727            
140                 0.00014             344.384             2.33812e-05         0.318349            0.315165            0.315165            
141                 0.000141            344.539             2.3702e-05          0.320817            0.317609            0.317609            
142                 0.000142            344.694             2.40253e-05         0.323291            0.320058            0.320058            
143                 0.000143            344.847             2.43511e-05         0.32577             0.322513            0.322513            
144                 0.000144            345                 2.46793e-05         0.328256            0.324973            0.324973            
145                 0.000145            345.153             2.50101e-05         0.330746            0.327439            0.327439            
146                 0.000146            345.305             2.53433e-05         0.333243            0.32991             0.32991             
147                 0.000147            345.456             2.56791e-05         0.335745            0.332387            0.332387            
148                 0.000148            345.606             2.60173e-05         0.338252            0.334869            0.334869            
149                 0.000149            345.756             2.63581e-05         0.340765            0.337357            0.337357            
150                 0.00015             345.905             2.67014e-05         0.343283            0.33985             0.33985             
151                 0.000151            346.053             2.70472e-05         0.345807            0.342349            0.342349            
152                 0.000152            346.201             2.73955e-05         0.348336            0.344852            0.344852            
153                 0.000153            346.348             2.77464e-05         0.35087             0.347362            0.347362            
154                 0.000154            346.495             2.80998e-05         0.35341             0.349876            0.349876            
155                 0.000155            346.641             2.84558e-05         0.355955            0.352395            0.352395            
156                 0.000156            346.786             2.88143e-05         0.358505            0.35492             0.35492             
157                 0.000157            346.93              2.91753e-05         0.361061            0.35745             0.35745             
158                 0.000158            347.075             2.95389e-05         0.363622            0.359985            0.359985            
159                 0.000159            347.218             2.99051e-05         0.366188            0.362526            0.362526            
160                 0.00016             347.361             3.02739e-05         0.368759            0.365071            0.365071            
161                 0.000161            347.503             3.06452e-05         0.371335            0.367622            0.367622            
162                 0.000162            347.645             3.10191e-05         0.373916            0.370177            0.370177            
163                 0.000163            347.786             3.13956e-05         0.376503            0.372738            0.372738            
164                 0.000164            347.926             3.17747e-05         0.379094            0.375303            0.375303            
165                 0.000165            348.066             3.21564e-05         0.381691            0.377874            0.377874            
166                 0.000166            348.205             3.25407e-05         0.384292            0.38045             0.38045             
167                 0.000167            348.344             3.29276e-05         0.386899            0.38303             0.38303             
168                 0.000168            348.482             3.33171e-05         0.38951             0.385615            0.385615            
169                 0.000169            348.62              3.37093e-05         0.392127            0.388205            0.388205            
170                 0.00017             348.757             3.4104e-05          0.394748            0.3908              0.3908              
171                 0.000171            348.894             3.45014e-05         0.397374            0.3934              0.3934              
172                 0.000172            349.03              3.49014e-05         0.400005            0.396004            0.396004            
173                 0.000173            349.165             3.5304e-05          0.40264             0.398614            0.398614            
174                 0.000174            349.3               3.57093e-05         0.40528             0.401228            0.401228            
175                 0.000175            349.434             3.61172e-05         0.407926            0.403846            0.403846            
176                 0.000176            349.568             3.65278e-05         0.410575            0.40647             0.40647             
177                 0.000177            349.701             3.6941e-05          0.41323             0.409097            0.409097            
178                 0.000178            349.834             3.73569e-05         0.415889            0.41173             0.41173             
179                 0.000179            349.966             3.77755e-05         0.418552            0.414367            0.414367            
180                 0.00018             350.098             3.81967e-05         0.421221            0.417009            0.417009            
181                 0.000181            350.229             3.86206e-05         0.423894            0.419655            0.419655            
182                 0.000182            350.36              3.90472e-05         0.426571            0.422305            0.422305            
183                 0.000183            350.49              3.94764e-05         0.429253            0.42496             0.42496             
184                 0.000184            350.62              3.99083e-05         0.431939            0.427619            0.427619            
185                 0.000185            350.749             4.0343e-05          0.434629            0.430283            0.430283            
186                 0.000186            350.878             4.07803e-05         0.437325            0.432951            0.432951            
187                 0.000187            351.006             4.12203e-05         0.440024            0.435624            0.435624            
188                 0.000188            351.134             4.16631e-05         0.442728            0.4383              0.4383              
189                 0.000189            351.261             4.21085e-05         0.445436            0.440981            0.440981            
190                 0.00019             351.388             4.25566e-05         0.448148            0.443667            0.443667            
191                 0.000191            351.514             4.30075e-05         0.450865            0.446356            0.446356            
192                 0.000192            351.64              4.34611e-05         0.453585            0.449049            0.449049            
193                 0.000193            351.765             4.39174e-05         0.45631             0.451747            0.451747            
194                 0.000194            351.89              4.43764e-05         0.459039            0.454449            0.454449            
195                 0.000195            352.014             4.48382e-05         0.461773            0.457155            0.457155            
196                 0.000196            352.138             4.53027e-05         0.46451             0.459865            0.459865            
197                 0.000197            352.262             4.577e-05           0.467251            0.462579            0.462579            
198                 0.000198            352.385             4.624e-05           0.469997            0.465297            0.465297            
199                 0.000199            352.507             4.67127e-05         0.472746            0.468019            0.468019            
200                 0.0002              352.629             4.71882e-05         0.475499            0.470744            0.470744            
201                 0.000201            352.751             4.76665e-05         0.478257            0.473474            0.473474            
202                 0.000202            352.872             4.81475e-05         0.481018            0.476208            0.476208            
203                 0.000203            352.993             4.86313e-05         0.483783            0.478945            0.478945            
204                 0.000204            353.113             4.91178e-05         0.486552            0.481686            0.481686            
205                 0.000205            353.233             4.96071e-05         0.489324            0.484431            0.484431            
206                 0.000206            353.352             5.00992e-05         0.492101            0.48718             0.48718             
207                 0.000207            353.471             5.05941e-05         0.494881            0.489932            0.489932            
208                 0.000208            353.59              5.10918e-05         0.497665            0.492688            0.492688            
209                 0.000209            353.708             5.15922e-05         0.500453            0.495448            0.495448            
210                 0.00021             353.826             5.20955e-05         0.503244            0.498212            0.498212            
211                 0.000211            353.943             5.26015e-05         0.506039            0.500979            0.500979            
212                 0.000212            354.06              5.31104e-05         0.508837            0.503749            0.503749            
213                 0.000213            354.176             5.3622e-05          0.51164             0.506523            0.506523            
214                 0.000214            354.292             5.41365e-05         0.514445            0.509301            0.509301            
215                 0.000215            354.408             5.46537e-05         0.517254            0.512082            0.512082            
216                 0.000216            354.523             5.51738e-05         0.520067            0.514866            0.514866            
217                 0.000217            354.638             5.56967e-05         0.522883            0.517654            0.517654            
218                 0.000218            354.752             5.62224e-05         0.525702            0.520445            0.520445            
219                 0.000219            354.866             5.67509e-05         0.528525            0.52324             0.52324             
220                 0.00022             354.98              5.72822e-05         0.531351            0.526038            0.526038            
221                 0.000221            355.093             5.78164e-05         0.534181            0.528839            0.528839            
222                 0.000222            355.206             5.83534e-05         0.537014            0.531644            0.531644            
223                 0.000223            355.318             5.88933e-05         0.53985             0.534451            0.534451            
224                 0.000224            355.43              5.9436e-05          0.542689            0.537262            0.537262            
225                 0.000225            355.542             5.99815e-05         0.545531            0.540076            0.540076            
226                 0.000226            355.653             6.05299e-05         0.548377            0.542893            0.542893            
227                 0.000227            355.764             6.10811e-05         0.551226            0.545714            0.545714            
228                 0.000228            355.874             6.16352e-05         0.554078            0.548537            0.548537            
229                 0.000229            355.984             6.21921e-05         0.556933            0.551363            0.551363            
230                 0.00023             356.094             6.27519e-05         0.559791            0.554193            0.554193            
231                 0.000231            356.203             6.33146e-05         0.562652            0.557025            0.557025            
232                 0.000232            356.312             6.38801e-05         0.565516            0.55986             0.55986             
233                 0.000233            356.421             6.44485e-05         0.568382            0.562699            0.562699            
234                 0.000234            356.529             6.50197e-05         0.571252            0.56554             0.56554             
235                 0.000235            356.637             6.55938e-05         0.574125            0.568384            0.568384            
236                 0.000236            356.744             6.61708e-05         0.577001            0.571231            0.571231            
237                 0.000237            356.851             6.67507e-05         0.579879            0.57408             0.57408             
238                 0.000238            356.958             6.73335e-05         0.58276             0.576933            0.576933            
239                 0.000239            357.064             6.79191e-05         0.585644            0.579788            0.579788            
240                 0.00024             357.17              6.85076e-05         0.588531            0.582646            0.582646            
241                 0.000241            357.276             6.90991e-05         0.59142             0.585506            0.585506            
242                 0.000242            357.381             6.96934e-05         0.594312            0.588369            0.588369            
243                 0.000243            357.486             7.02906e-05         0.597207            0.591235            0.591235            
244                 0.000244            357.591             7.08907e-05         0.600105            0.594104            0.594104            
245                 0.000245            357.695             7.14937e-05         0.603005            0.596975            0.596975            
246                 0.000246            357.799             7.20996e-05         0.605907            0.599848            0.599848            
247                 0.000247            357.902             7.27084e-05         0.608812            0.602724            0.602724            
248                 0.000248            358.005             7.33201e-05         0.61172             0.605602            0.605602            
249                 0.000249            358.108             7.39348e-05         0.61463             0.608483            0.608483            
250                 0.00025             358.211             7.45523e-05         0.617542            0.611367            0.611367            
251                 0.000251            358.313             7.51728e-05         0.620457            0.614252            0.614252            
252                 0.000252            358.415             7.57961e-05         0.623374            0.61714             0.61714             
253                 0.000253            358.516             7.64224e-05         0.626294            0.620031            0.620031            
254                 0.000254            358.617             7.70516e-05         0.629216            0.622924            0.622924            
255                 0.000255            358.718             7.76838e-05         0.63214             0.625818            0.625818            
256                 0.000256            358.818             7.83189e-05         0.635066            0.628716            0.628716            
257                 0.000257            358.918             7.89568e-05         0.637995            0.631615            0.631615            
258                 0.000258            359.018             7.95978e-05         0.640926            0.634517            0.634517            
259                 0.000259            359.118             8.02416e-05         0.643859            0.63742             0.63742             
260                 0.00026             359.217             8.08884e-05         0.646794            0.640326            0.640326            
261                 0.000261            359.315             8.15382e-05         0.649731            0.643234            0.643234            
262                 0.000262            359.414             8.21908e-05         0.652671            0.646144            0.646144            
263                 0.000263            359.512             8.28464e-05         0.655612            0.649056            0.649056            
264                 0.000264            359.61              8.3505e-05          0.658556            0.65197             0.65197             
265                 0.000265            359.707             8.41665e-05         0.661501            0.654886            0.654886            
266                 0.000266            359.805             8.48309e-05         0.664448            0.657804            0.657804            
267                 0.000267            359.902             8.54983e-05         0.667398            0.660724            0.660724            
268                 0.000268            359.998             8.61687e-05         0.670349            0.663646            0.663646            
269                 0.000269            360.094             8.6842e-05          0.673302            0.666569            0.666569            
270                 0.00027             360.19              8.75183e-05         0.676257            0.669495            0.669495            
271                 0.000271            360.286             8.81975e-05         0.679214            0.672422            0.672422            
272                 0.000272            360.381             8.88796e-05         0.682173            0.675351            0.675351            
273                 0.000273            360.476             8.95648e-05         0.685133            0.678282            0.678282            
274                 0.000274            360.571             9.02529e-05         0.688095            0.681214            0.681214            
275                 0.000275            360.665             9.09439e-05         0.691059            0.684148            0.684148            
276                 0.000276            360.759             9.1638e-05          0.694024            0.687084            0.687084            
277                 0.000277            360.853             9.23349e-05         0.696992            0.690022            0.690022            
278                 0.000278            360.947             9.30349e-05         0.69996             0.692961            0.692961            
279                 0.000279            361.04              9.37378e-05         0.702931            0.695901            0.695901            
280                 0.00028             361.133             9.44437e-05         0.705903            0.698844            0.698844            
281                 0.000281            361.225             9.51526e-05         0.708876            0.701787            0.701787            
282                 0.000282            361.318             9.58645e-05         0.711851            0.704733            0.704733            
283                 0.000283            361.41              9.65793e-05         0.714828            0.707679            0.707679            
284                 0.000284            361.501             9.72971e-05         0.717805            0.710627            0.710627            
285                 0.000285            361.593             9.80179e-05         0.720785            0.713577            0.713577            
286                 0.000286            361.684             9.87416e-05         0.723766            0.716528            0.716528            
287                 0.000287            361.775             9.94684e-05         0.726748            0.71948             0.71948             
288                 0.000288            361.865             0.000100198         0.729731            0.722434            0.722434            
289                 0.000289            361.956             0.000100931         0.732716            0.725389            0.725389            
290                 0.00029             362.046             0.000101667         0.735702            0.728345            0.728345            
291                 0.000291            362.135             0.000102405         0.738689            0.731302            0.731302            
292                 0.000292            362.225             0.000103147         0.741678            0.734261            0.734261            
293                 0.000293            362.314             0.000103892         0.744668            0.737221            0.737221            
294                 0.000294            362.403             0.000104639         0.747659            0.740182            0.740182            
295                 0.000295            362.491             0.00010539          0.750651            0.743144            0.743144            
296                 0.000296            362.58              0.000106144         0.753644            0.746107            0.746107            
297                 0.000297            362.668             0.0001069           0.756638            0.749072            0.749072            
298                 0.000298            362.755             0.00010766          0.759634            0.752037            0.752037            
299                 0.000299            362.843             0.000108422         0.76263             0.755004            0.755004            
300                 0.0003              362.93              0.000109188         0.765628            0.757971            0.757971            
301                 0.000301            363.017             0.000109957         0.768626            0.76094             0.76094             
302                 0.000302            363.104             0.000110728         0.771625            0.763909            0.763909            
303                 0.000303            363.19              0.000111503         0.774626            0.76688             0.76688             
304                 0.000304            363.276             0.000112281         0.777627            0.769851            0.769851            
305                 0.000305            363.362             0.000113061         0.780629            0.772823            0.772823            
306                 0.000306            363.447             0.000113845         0.783632            0.775796            0.775796            
307                 0.000307            363.533             0.000114631         0.786636            0.77877             0.77877             
308                 0.000308            363.618             0.000115421         0.789641            0.781745            0.781745            
309                 0.000309            363.703             0.000116214         0.792646            0.78472             0.78472             
310                 0.00031             363.787             0.000117009         0.795653            0.787696            0.787696            
311                 0.000311            363.871             0.000117808         0.79866             0.790673            0.790673            
312                 0.000312            363.955             0.00011861          0.801667            0.793651            0.793651            
313                 0.000313            364.039             0.000119414         0.804676            0.796629            0.796629            
314                 0.000314            364.123             0.000120222         0.807685            0.799608            0.799608            
315                 0.000315            364.206             0.000121033         0.810694            0.802587            0.802587            
316                 0.000316            364.289             0.000121846         0.813705            0.805568            0.805568            
317                 0.000317            364.372             0.000122663         0.816716            0.808548            0.808548            
318                 0.000318            364.454             0.000123483         0.819727            0.81153             0.81153             
319                 0.000319            364.536             0.000124306         0.822739            0.814511            0.814511            
320                 0.00032             364.618             0.000125131         0.825751            0.817494            0.817494            
321                 0.000321            364.7               0.00012596          0.828764            0.820477            0.820477            
322                 0.000322            364.782             0.000126792         0.831778            0.82346             0.82346             
323                 0.000323            364.863             0.000127627         0.834791            0.826444            0.826444            
324                 0.000324            364.944             0.000128465         0.837806            0.829428            0.829428            
325                 0.000325            365.024             0.000129305         0.84082             0.832412            0.832412            
326                 0.000326            365.105             0.000130149         0.843835            0.835397            0.835397            
327                 0.000327            365.185             0.000130996         0.846851            0.838382            0.838382            
328                 0.000328            365.265             0.000131846         0.849866            0.841368            0.841368            
329                 0.000329            365.345             0.000132699         0.852882            0.844353            0.844353            
330                 0.00033             365.424             0.000133555         0.855898            0.847339            0.847339            
331                 0.000331            365.504             0.000134414         0.858915            0.850326            0.850326            
332                 0.000332            365.583             0.000135276         0.861931            0.853312            0.853312            
333                 0.000333            365.662             0.000136141         0.864948            0.856299            0.856299            
334                 0.000334            365.74              0.000137008         0.867965            0.859286            0.859286            
335                 0.000335            365.818             0.000137879         0.870983            0.862273            0.862273            
336                 0.000336            365.897             0.000138753         0.874               0.86526             0.86526             
337                 0.000337            365.974             0.00013963          0.877017            0.868247            0.868247            
338                 0.000338            366.052             0.000140511         0.880035            0.871234            0.871234            
339                 0.000339            366.129             0.000141394         0.883052            0.874222            0.874222            
340                 0.00034             366.207             0.00014228          0.88607             0.877209            0.877209            
341                 0.000341            366.283             0.000143169         0.889087            0.880196            0.880196            
342                 0.000342            366.36              0.000144061         0.892105            0.883184            0.883184            
343                 0.000343            366.437             0.000144956         0.895122            0.886171            0.886171            
344                 0.000344            366.513             0.000145854         0.89814             0.889158            0.889158            
345                 0.000345            366.589             0.000146755         0.901157            0.892146            0.892146            
346                 0.000346            366.665             0.000147659         0.904175            0.895133            0.895133            
347                 0.000347            366.74              0.000148567         0.907192            0.89812             0.89812             
348                 0.000348            366.816             0.000149477         0.910209            0.901107            0.901107            
349                 0.000349            366.891             0.00015039          0.913226            0.904093            0.904093            
350                 0.00035             366.966             0.000151306         0.916242            0.90708             0.90708             
351                 0.000351            367.04              0.000152226         0.919259            0.910066            0.910066            
352                 0.000352            367.115             0.000153148         0.922275            0.913052            0.913052            
353                 0.000353            367.189             0.000154073         0.925291            0.916038            0.916038            
354                 0.000354            367.263             0.000155001         0.928307            0.919023            0.919023            
355                 0.000355            367.337             0.000155933         0.931322            0.922009            0.922009            
356                 0.000356            367.41              0.000156867         0.934337            0.924994            0.924994            
357                 0.000357            367.484             0.000157804         0.937352            0.927978            0.927978            
358                 0.000358            367.557             0.000158745         0.940366            0.930962            0.930962            
359                 0.000359            367.63              0.000159688         0.94338             0.933946            0.933946            
360                 0.00036             367.702             0.000160635         0.946394            0.93693             0.93693             
361                 0.000361            367.775             0.000161584         0.949407            0.939913            0.939913            
362                 0.000362            367.847             0.000162536         0.95242             0.942895            0.942895            
363                 0.000363            367.919             0.000163492         0.955432            0.945877            0.945877            
364                 0.000364            367.991             0.00016445          0.958444            0.948859            0.948859            
365                 0.000365            368.063             0.000165412         0.961455            0.95184             0.95184             
366                 0.000366            368.134             0.000166376         0.964466            0.954821            0.954821            
367                 0.000367            368.205             0.000167344         0.967476            0.957801            0.957801            
368                 0.000368            368.276             0.000168314         0.970485            0.960781            0.960781            
369                 0.000369            368.347             0.000169288         0.973494            0.963759            0.963759            
370                 0.00037             368.418             0.000170264         0.976503            0.966738            0.966738            
371                 0.000371            368.488             0.000171244         0.979511            0.969716            0.969716            
372                 0.000372            368.558             0.000172226         0.982518            0.972693            0.972693            
373                 0.000373            368.628             0.000173212         0.985524            0.975669            0.975669            
374                 0.000374            368.698             0.0001742           0.98853             0.978645            0.978645            
375                 0.000375            368.768             0.000175192         0.991535            0.98162             0.98162             
376                 0.000376            368.837             0.000176186         0.99454             0.984594            0.984594            
377                 0.000377            368.906             0.000177184         0.997543            0.987568            0.987568            
378                 0.000378            368.975             0.000178184         1.00055             0.990541            0.990541            
379                 0.000379            369.044             0.000179188         1.00355             0.993513            0.993513            
380                 0.00038             369.112             0.000180194         1.00655             0.996484            0.996484            
381                 0.000381            369.181             0.000181204         1.00955             0.999455            0.999455            
382                 0.000382            369.249             0.000182217         1.01255             1.00242             1.00242             
383                 0.000383            369.317             0.000183232         1.01555             1.00539             1.00539             
384                 0.000384            369.385             0.000184251         1.01855             1.00836             1.00836             
385                 0.000385            369.452             0.000185272         1.02154             1.01133             1.01133             
386                 0.000386            369.52              0.000186297         1.02454             1.01429             1.01429             
387                 0.000387            369.587             0.000187324         1.02753             1.01726             1.01726             
388                 0.000388            369.654             0.000188355         1.03053             1.02022             1.02022             
389                 0.000389            369.721             0.000189388         1.03352             1.02319             1.02319             
390                 0.00039             369.787             0.000190425         1.03651             1.02615             1.02615             
391                 0.000391            369.854             0.000191464         1.03951             1.02911             1.02911             
392                 0.000392            369.92              0.000192507         1.0425              1.03207             1.03207             
393                 0.000393            369.986             0.000193552         1.04549             1.03503             1.03503             
394                 0.000394            370.052             0.000194601         1.04847             1.03799             1.03799             
395                 0.000395            370.118             0.000195652         1.05146             1.04095             1.04095             
396                 0.000396            370.183             0.000196707         1.05445             1.0439              1.0439              
397                 0.000397            370.248             0.000197764         1.05743             1.04686             1.04686             
398                 0.000398            370.313             0.000198825         1.06042             1.04981             1.04981             
399                 0.000399            370.378             0.000199888         1.0634              1.05276             1.05276             
400                 0.0004              370.443             0.000200954         1.06638             1.05572             1.05572             
401                 0.000401            370.508             0.000202024         1.06936             1.05867             1.05867             
402                 0.000402            370.572             0.000203096         1.07234             1.06162             1.06162             
403                 0.000403            370.636             0.000204171         1.07532             1.06456             1.06456             
404                 0.000404            370.7               0.00020525          1.07829             1.06751             1.06751             
405                 0.000405            370.764             0.000206331         1.08127             1.07046             1.07046             
406                 0.000406            370.828             0.000207415         1.08424             1.0734              1.0734              
407                 0.000407            370.891             0.000208502         1.08722             1.07635             1.07635             
408                 0.000408            370.954             0.000209593         1.09019             1.07929             1.07929             
409                 0.000409            371.017             0.000210686         1.09316             1.08223             1.08223             
410                 0.00041             371.08              0.000211782         1.09613             1.08517             1.08517             
411                 0.000411            371.143             0.000212881         1.0991              1.08811             1.08811             
412                 0.000412            371.206             0.000213983         1.10206             1.09104             1.09104             
413                 0.000413            371.268             0.000215088         1.10503             1.09398             1.09398             
414                 0.000414            371.33              0.000216196         1.10799             1.09691             1.09691             
415                 0.000415            371.392             0.000217307         1.11095             1.09985             1.09985             
416                 0.000416            371.454             0.000218421         1.11392             1.10278             1.10278             
417                 0.000417            371.516             0.000219538         1.11688             1.10571             1.10571             
418                 0.000418            371.577             0.000220658         1.11983             1.10863             1.10863             
419                 0.000419            371.639             0.00022178          1.12279             1.11156             1.11156             
420                 0.00042             371.7               0.000222906         1.12574             1.11449             1.11449             
421                 0.000421            371.761             0.000224035         1.1287              1.11741             1.11741             
422                 0.000422            371.822             0.000225167         1.13165             1.12033             1.12033             
423                 0.000423            371.882             0.000226301         1.1346              1.12326             1.12326             
424                 0.000424            371.943             0.000227439         1.13755             1.12618             1.12618             
425                 0.000425            372.003             0.000228579         1.1405              1.12909             1.12909             
426                 0.000426            372.063             0.000229723         1.14344             1.13201             1.13201             
427                 0.000427            372.123             0.000230869         1.14639             1.13493             1.13493             
428                 0.000428            372.183             0.000232018         1.14933             1.13784             1.13784             
429                 0.000429            372.243             0.000233171         1.15227             1.14075             1.14075             
430                 0.00043             372.302             0.000234326         1.15521             1.14366             1.14366             
431                 0.000431            372.361             0.000235484         1.15815             1.14657             1.14657             
432                 0.000432            372.421             0.000236645         1.16109             1.14948             1.14948             
433                 0.000433            372.48              0.000237809         1.16402             1.15238             1.15238             
434                 0.000434            372.538             0.000238976         1.16696             1.15529             1.15529             
435                 0.000435            372.597             0.000240146         1.16989             1.15819             1.15819             
436                 0.000436            372.656             0.000241319         1.17282             1.16109             1.16109             
437                 0.000437            372.714             0.000242495         1.17574             1.16399             1.16399             
438                 0.000438            372.772             0.000243673         1.17867             1.16688             1.16688             
439                 0.000439            372.83              0.000244855         1.1816              1.16978             1.16978             
440                 0.00044             372.888             0.000246039         1.18452             1.17267             1.17267             
441                 0.000441            372.946             0.000247227         1.18744             1.17557             1.17557             
442                 0.000442            373.003             0.000248417         1.19036             1.17846             1.17846             
443                 0.000443            373.06              0.00024961          1.19328             1.18134             1.18134             
444                 0.000444            373.118             0.000250807         1.19619             1.18423             1.18423             
445                 0.000445            373.175             0.000252006         1.19911             1.18712             1.18712             
446                 0.000446            373.232             0.000253208         1.20202             1.19                1.19                
447                 0.000447            373.288             0.000254413         1.20493             1.19288             1.19288             
448                 0.000448            373.345             0.00025562          1.20784             1.19576             1.19576             
449                 0.000449            373.401             0.000256831         1.21074             1.19864             1.19864             
450                 0.00045             373.458             0.000258045         1.21365             1.20151             1.20151             
451                 0.000451            373.514             0.000259261         1.21655             1.20439             1.20439             
452                 0.000452            373.57              0.000260481         1.21945             1.20726             1.20726             
453                 0.000453            373.625             0.000261703         1.22235             1.21013             1.21013             
454                 0.000454            373.681             0.000262928         1.22525             1.213               1.213               
455                 0.000455            373.737             0.000264157         1.22814             1.21586             1.21586             
456                 0.000456            373.792             0.000265388         1.23104             1.21873             1.21873             
457                 0.000457            373.847             0.000266622         1.23393             1.22159             1.22159             
458                 0.000458            373.902             0.000267858         1.23682             1.22445             1.22445             
459                 0.000459            373.957             0.000269098         1.23971             1.22731             1.22731             
460                 0.00046             374.012             0.000270341         1.24259             1.23017             1.23017             
461                 0.000461            374.066             0.000271586         1.24548             1.23302             1.23302             
462                 0.000462            374.121             0.000272835         1.24836             1.23587             1.23587             
463                 0.000463            374.175             0.000274086         1.25124             1.23872             1.23872             
464                 0.000464            374.229             0.00027534          1.25411             1.24157             1.24157             
465                 0.000465            374.283             0.000276597         1.25699             1.24442             1.24442             
466                 0.000466            374.337             0.000277857         1.25986             1.24726             1.24726             
467                 0.000467            374.391             0.000279119         1.26273             1.25011             1.25011             
468                 0.000468            374.444             0.000280385         1.2656              1.25295             1.25295             
469                 0.000469            374.498             0.000281654         1.26847             1.25579             1.25579             
470                 0.00047             374.551             0.000282925         1.27134             1.25862             1.25862             
471                 0.000471            374.604             0.000284199         1.2742              1.26146             1.26146             
472                 0.000472            374.657             0.000285476         1.27706             1.26429             1.26429             
473                 0.000473            374.71              0.000286756         1.27992             1.26712             1.26712             
474                 0.000474            374.763             0.000288039         1.28278             1.26995             1.26995             
475                 0.000475            374.815             0.000289324         1.28563             1.27277             1.27277             
476                 0.000476            374.868             0.000290613         1.28848             1.2756              1.2756              
477                 0.000477            374.92              0.000291904         1.29133             1.27842             1.27842             
478                 0.000478            374.972             0.000293198         1.29418             1.28124             1.28124             
479                 0.000479            375.024             0.000294495         1.29703             1.28406             1.28406             
480                 0.00048             375.076             0.000295795         1.29987             1.28687             1.28687             
481                 0.000481            375.128             0.000297098         1.30271             1.28969             1.28969             
482                 0.000482            375.179             0.000298404         1.30555             1.2925              1.2925              
483                 0.000483            375.231             0.000299712         1.30839             1.29531             1.29531             
484                 0.000484            375.282             0.000301023         1.31122             1.29811             1.29811             
485                 0.000485            375.333             0.000302337         1.31406             1.30092             1.30092             
486                 0.000486            375.384             0.000303654         1.31689             1.30372             1.30372             
487                 0.000487            375.435             0.000304974         1.31972             1.30652             1.30652             
488                 0.000488            375.486             0.000306296         1.32254             1.30932             1.30932             
489                 0.000489            375.536             0.000307622         1.32537             1.31211             1.31211             
490                 0.00049             375.587             0.00030895          1.32819             1.31491             1.31491             
491                 0.000491            375.637             0.000310281         1.33101             1.3177              1.3177              
492                 0.000492            375.687             0.000311615         1.33382             1.32048             1.32048             
493                 0.000493            375.738             0.000312951         1.33664             1.32327             1.32327             
494                 0.000494            375.788             0.000314291         1.33945             1.32606             1.32606             
495                 0.000495            375.837             0.000315633         1.34226             1.32884             1.32884             
496                 0.000496            375.887             0.000316978         1.34507             1.33162             1.33162             
497                 0.000497            375.937             0.000318326         1.34787             1.33439             1.33439             
498                 0.000498            375.986             0.000319677         1.35068             1.33717             1.33717             
499                 0.000499            376.035             0.00032103          1.35348             1.33994             1.33994             
500                 0.0005              376.084             0.000322387         1.35628             1.34271             1.34271             
501                 0.000501            376.133             0.000323746         1.35907             1.34548             1.34548             
502                 0.000502            376.182             0.000325107         1.36187             1.34825             1.34825             
503                 0.000503            376.231             0.000326472         1.36466             1.35101             1.35101             
504                 0.000504            376.28              0.00032784          1.36745             1.35377             1.35377             
505                 0.000505            376.328             0.00032921          1.37023             1.35653             1.35653             
506                 0.000506            376.377             0.000330583         1.37302             1.35929             1.35929             
507                 0.000507            376.425             0.000331959         1.3758              1.36204             1.36204             
508                 0.000508            376.473             0.000333337         1.37858             1.36479             1.36479             
509                 0.000509            376.521             0.000334719         1.38135             1.36754             1.36754             
510                 0.00051             376.569             0.000336103         1.38413             1.37029             1.37029             
511                 0.000511            376.616             0.00033749          1.3869              1.37303             1.37303             
512                 0.000512            376.664             0.000338879         1.38967             1.37577             1.37577             
513                 0.000513            376.712             0.000340272         1.39244             1.37851             1.37851             
514                 0.000514            376.759             0.000341667         1.3952              1.38125             1.38125             
515                 0.000515            376.806             0.000343065         1.39796             1.38398             1.38398             
516                 0.000516            376.853             0.000344466         1.40072             1.38672             1.38672             
517                 0.000517            376.9               0.000345869         1.40348             1.38945             1.38945             
518                 0.000518            376.947             0.000347275         1.40624             1.39217             1.39217             
519                 0.000519            376.994             0.000348684         1.40899             1.3949              1.3949              
520                 0.00052             377.04              0.000350096         1.41174             1.39762             1.39762             
521                 0.000521            377.087             0.000351511         1.41449             1.40034             1.40034             
522                 0.000522            377.133             0.000352928         1.41723             1.40306             1.40306             
523                 0.000523            377.18              0.000354348         1.41997             1.40577             1.40577             
524                 0.000524            377.226             0.00035577          1.42271             1.40849             1.40849             
525                 0.000525            377.272             0.000357196         1.42545             1.4112              1.4112              
526                 0.000526            377.318             0.000358624         1.42819             1.4139              1.4139              
527                 0.000527            377.363             0.000360055         1.43092             1.41661             1.41661             
528                 0.000528            377.409             0.000361489         1.43365             1.41931             1.41931             
529                 0.000529            377.455             0.000362925         1.43637             1.42201             1.42201             
530                 0.00053             377.5               0.000364364         1.4391              1.42471             1.42471             
531                 0.000531            377.545             0.000365806         1.44182             1.4274              1.4274              
532                 0.000532            377.591             0.00036725          1.44454             1.43009             1.43009             
533                 0.000533            377.636             0.000368698         1.44726             1.43278             1.43278             
534                 0.000534            377.681             0.000370148         1.44997             1.43547             1.43547             
535                 0.000535            377.725             0.0003716           1.45268             1.43816             1.43816             
536                 0.000536            377.77              0.000373056         1.45539             1.44084             1.44084             
537                 0.000537            377.815             0.000374514         1.4581              1.44352             1.44352             
538                 0.000538            377.859             0.000375975         1.4608              1.44619             1.44619             
539                 0.000539            377.904             0.000377438         1.4635              1.44887             1.44887             
540                 0.00054             377.948             0.000378904         1.4662              1.45154             1.45154             
541                 0.000541            377.992             0.000380373         1.4689              1.45421             1.45421             
542                 0.000542            378.036             0.000381845         1.47159             1.45688             1.45688             
543                 0.000543            378.08              0.000383319         1.47428             1.45954             1.45954             
544                 0.000544            378.124             0.000384796         1.47697             1.4622              1.4622              
545                 0.000545            378.167             0.000386276         1.47966             1.46486             1.46486             
546                 0.000546            378.211             0.000387758         1.48234             1.46752             1.46752             
547                 0.000547            378.254             0.000389243         1.48502             1.47017             1.47017             
548                 0.000548            378.298             0.000390731         1.4877              1.47282             1.47282             
549                 0.000549            378.341             0.000392221         1.49037             1.47547             1.47547             
550                 0.00055             378.384             0.000393714         1.49305             1.47812             1.47812             
551                 0.000551            378.427             0.00039521          1.49572             1.48076             1.48076             
552                 0.000552            378.47              0.000396708         1.49838             1.4834              1.4834              
553                 0.000553            378.513             0.000398209         1.50105             1.48604             1.48604             
554                 0.000554            378.555             0.000399713         1.50371             1.48867             1.48867             
555                 0.000555            378.598             0.000401219         1.50637             1.4913              1.4913              
556                 0.000556            378.641             0.000402728         1.50902             1.49393             1.49393             
557                 0.000557            378.683             0.00040424          1.51168             1.49656             1.49656             
558                 0.000558            378.725             0.000405755         1.51433             1.49919             1.49919             
559                 0.000559            378.767             0.000407271         1.51698             1.50181             1.50181             
560                 0.00056             378.809             0.000408791         1.51962             1.50443             1.50443             
561                 0.000561            378.851             0.000410313         1.52227             1.50704             1.50704             
562                 0.000562            378.893             0.000411838         1.52491             1.50966             1.50966             
563                 0.000563            378.935             0.000413366         1.52755             1.51227             1.51227             
564                 0.000564            378.976             0.000414896         1.53018             1.51488             1.51488             
565                 0.000565            379.018             0.000416429         1.53281             1.51748             1.51748             
566                 0.000566            379.059             0.000417964         1.53544             1.52009             1.52009             
567                 0.000567            379.101             0.000419502         1.53807             1.52269             1.52269             
568                 0.000568            379.142             0.000421043         1.54069             1.52529             1.52529             
569                 0.000569            379.183             0.000422586         1.54331             1.52788             1.52788             
570                 0.00057             379.224             0.000424132         1.54593             1.53047             1.53047             
571                 0.000571            379.265             0.000425681         1.54855             1.53306             1.53306             
572                 0.000572            379.306             0.000427232         1.55116             1.53565             1.53565             
573                 0.000573            379.346             0.000428786         1.55377             1.53824             1.53824             
574                 0.000574            379.387             0.000430342         1.55638             1.54082             1.54082             
575                 0.000575            379.427             0.000431901         1.55899             1.5434              1.5434              
576                 0.000576            379.468             0.000433463         1.56159             1.54597             1.54597             
577                 0.000577            379.508             0.000435027         1.56419             1.54855             1.54855             
578                 0.000578            379.548             0.000436594         1.56678             1.55112             1.55112             
579                 0.000579            379.588             0.000438163         1.56938             1.55369             1.55369             
580                 0.00058             379.628             0.000439735         1.57197             1.55625             1.55625             
581                 0.000581            379.668             0.00044131          1.57456             1.55881             1.55881             
582                 0.000582            379.708             0.000442887         1.57714             1.56137             1.56137             
583                 0.000583            379.747             0.000444466         1.57973             1.56393             1.56393             
584                 0.000584            379.787             0.000446049         1.58231             1.56648             1.56648             
585                 0.000585            379.826             0.000447634         1.58489             1.56904             1.56904             
586                 0.000586            379.866             0.000449221         1.58746             1.57159             1.57159             
587                 0.000587            379.905             0.000450811         1.59003             1.57413             1.57413             
588                 0.000588            379.944             0.000452404         1.5926              1.57668             1.57668             
589                 0.000589            379.983             0.000453999         1.59517             1.57922             1.57922             
590                 0.00059             380.022             0.000455597         1.59773             1.58175             1.58175             
591                 0.000591            380.061             0.000457197         1.60029             1.58429             1.58429             
592                 0.000592            380.1               0.0004588           1.60285             1.58682             1.58682             
593                 0.000593            380.139             0.000460405         1.60541             1.58935             1.58935             
594                 0.000594            380.177             0.000462013         1.60796             1.59188             1.59188             
595                 0.000595            380.216             0.000463624         1.61051             1.5944              1.5944              
596                 0.000596            380.254             0.000465237         1.61306             1.59692             1.59692             
597                 0.000597            380.292             0.000466852         1.6156              1.59944             1.59944             
598                 0.000598            380.331             0.00046847          1.61814             1.60196             1.60196             
599                 0.000599            380.369             0.000470091         1.62068             1.60447             1.60447             
600                 0.0006              380.407             0.000471714         1.62322             1.60698             1.60698             
601                 0.000601            380.445             0.00047334          1.62575             1.60949             1.60949             
602                 0.000602            380.482             0.000474968         1.62828             1.612               1.612               
603                 0.000603            380.52              0.000476599         1.63081             1.6145              1.6145              
604                 0.000604            380.558             0.000478233         1.63333             1.617               1.617               
605                 0.000605            380.595             0.000479868         1.63585             1.61949             1.61949             
606                 0.000606            380.633             0.000481507         1.63837             1.62199             1.62199             
607                 0.000607            380.67              0.000483148         1.64089             1.62448             1.62448             
608                 0.000608            380.707             0.000484791         1.6434              1.62697             1.62697             
609                 0.000609            380.745             0.000486437         1.64591             1.62945             1.62945             
610                 0.00061             380.782             0.000488085         1.64842             1.63193             1.63193             
611                 0.000611            380.819             0.000489736         1.65092             1.63441             1.63441             
612                 0.000612            380.856             0.00049139          1.65343             1.63689             1.63689             
613                 0.000613            380.892             0.000493046         1.65593             1.63937             1.63937             
614                 0.000614            380.929             0.000494704         1.65842             1.64184             1.64184             
615                 0.000615            380.966             0.000496365         1.66092             1.64431             1.64431             
616                 0.000616            381.002             0.000498028         1.66341             1.64677             1.64677             
617                 0.000617            381.039             0.000499694         1.66589             1.64924             1.64924             
618                 0.000618            381.075             0.000501363         1.66838             1.6517              1.6517              
619                 0.000619            381.111             0.000503034         1.67086             1.65415             1.65415             
620                 0.00062             381.148             0.000504707         1.67334             1.65661             1.65661             
621                 0.000621            381.184             0.000506383         1.67582             1.65906             1.65906             
622                 0.000622            381.22              0.000508061         1.67829             1.66151             1.66151             
623                 0.000623            381.256             0.000509742         1.68076             1.66396             1.66396             
624                 0.000624            381.292             0.000511425         1.68323             1.6664              1.6664              
625                 0.000625            381.327             0.000513111         1.6857              1.66884             1.66884             
626                 0.000626            381.363             0.000514799         1.68816             1.67128             1.67128             
627                 0.000627            381.399             0.000516489         1.69062             1.67371             1.67371             
628                 0.000628            381.434             0.000518183         1.69308             1.67614             1.67614             
629                 0.000629            381.469             0.000519878         1.69553             1.67857             1.67857             
630                 0.00063             381.505             0.000521576         1.69798             1.681               1.681               
631                 0.000631            381.54              0.000523276         1.70043             1.68343             1.68343             
632                 0.000632            381.575             0.000524979         1.70288             1.68585             1.68585             
633                 0.000633            381.61              0.000526685         1.70532             1.68826             1.68826             
634                 0.000634            381.645             0.000528392         1.70776             1.69068             1.69068             
635                 0.000635            381.68              0.000530103         1.71019             1.69309             1.69309             
636                 0.000636            381.715             0.000531815         1.71263             1.6955              1.6955              
637                 0.000637            381.75              0.00053353          1.71506             1.69791             1.69791             
638                 0.000638            381.784             0.000535248         1.71749             1.70031             1.70031             
639                 0.000639            381.819             0.000536968         1.71992             1.70272             1.70272             
640                 0.00064             381.853             0.00053869          1.72234             1.70511             1.70511             
641                 0.000641            381.888             0.000540415         1.72476             1.70751             1.70751             
642                 0.000642            381.922             0.000542142         1.72718             1.7099              1.7099              
643                 0.000643            381.956             0.000543872         1.72959             1.71229             1.71229             
644                 0.000644            381.99              0.000545604         1.732               1.71468             1.71468             
645                 0.000645            382.024             0.000547338         1.73441             1.71707             1.71707             
646                 0.000646            382.058             0.000549075         1.73682             1.71945             1.71945             
647                 0.000647            382.092             0.000550814         1.73922             1.72183             1.72183             
648                 0.000648            382.126             0.000552556         1.74162             1.7242              1.7242              
649                 0.000649            382.16              0.0005543           1.74402             1.72658             1.72658             
650                 0.00065             382.194             0.000556046         1.74641             1.72895             1.72895             
651                 0.000651            382.227             0.000557795         1.7488              1.73132             1.73132             
652                 0.000652            382.261             0.000559546         1.75119             1.73368             1.73368             
653                 0.000653            382.294             0.0005613           1.75358             1.73604             1.73604             
654                 0.000654            382.327             0.000563056         1.75596             1.7384              1.7384              
655                 0.000655            382.361             0.000564814         1.75834             1.74076             1.74076             
656                 0.000656            382.394             0.000566575         1.76072             1.74311             1.74311             
657                 0.000657            382.427             0.000568338         1.76309             1.74546             1.74546             
658                 0.000658            382.46              0.000570103         1.76547             1.74781             1.74781             
659                 0.000659            382.493             0.000571871         1.76784             1.75016             1.75016             
660                 0.00066             382.526             0.000573641         1.7702              1.7525              1.7525              
661                 0.000661            382.559             0.000575414         1.77257             1.75484             1.75484             
662                 0.000662            382.591             0.000577189         1.77493             1.75718             1.75718             
663                 0.000663            382.624             0.000578966         1.77728             1.75951             1.75951             
664                 0.000664            382.656             0.000580746         1.77964             1.76184             1.76184             
665                 0.000665            382.689             0.000582528         1.78199             1.76417             1.76417             
666                 0.000666            382.721             0.000584312         1.78434             1.7665              1.7665              
667                 0.000667            382.754             0.000586099         1.78669             1.76882             1.76882             
668                 0.000668            382.786             0.000587888         1.78903             1.77114             1.77114             
669                 0.000669            382.818             0.000589679         1.79137             1.77346             1.77346             
670                 0.00067             382.85              0.000591473         1.79371             1.77577             1.77577             
671                 0.000671            382.882             0.000593269         1.79604             1.77808             1.77808             
672                 0.000672            382.914             0.000595067         1.79838             1.78039             1.78039             
673                 0.000673            382.946             0.000596868         1.80071             1.7827              1.7827              
674                 0.000674            382.978             0.000598671         1.80303             1.785               1.785               
675                 0.000675            383.01              0.000600476         1.80536             1.7873              1.7873              
676                 0.000676            383.041             0.000602284         1.80768             1.7896              1.7896              
677                 0.000677            383.073             0.000604094         1.81                1.7919              1.7919              
678                 0.000678            383.104             0.000605906         1.81231             1.79419             1.79419             
679                 0.000679            383.136             0.000607721         1.81462             1.79648             1.79648             
680                 0.00068             383.167             0.000609538         1.81693             1.79876             1.79876             
681                 0.000681            383.198             0.000611357         1.81924             1.80105             1.80105             
682                 0.000682            383.23              0.000613179         1.82154             1.80333             1.80333             
683                 0.000683            383.261             0.000615002         1.82385             1.80561             1.80561             
684                 0.000684            383.292             0.000616829         1.82614             1.80788             1.80788             
685                 0.000685            383.323             0.000618657         1.82844             1.81016             1.81016             
686                 0.000686            383.354             0.000620488         1.83073             1.81243             1.81243             
687                 0.000687            383.385             0.000622321         1.83302             1.81469             1.81469             
688                 0.000688            383.415             0.000624156         1.83531             1.81696             1.81696             
689                 0.000689            383.446             0.000625994         1.83759             1.81922             1.81922             
690                 0.00069             383.477             0.000627834         1.83988             1.82148             1.82148             
691                 0.000691            383.507             0.000629676         1.84216             1.82373             1.82373             
692                 0.000692            383.538             0.00063152          1.84443             1.82599             1.82599             
693                 0.000693            383.568             0.000633367         1.8467              1.82824             1.82824             
694                 0.000694            383.599             0.000635216         1.84897             1.83049             1.83049             
695                 0.000695            383.629             0.000637067         1.85124             1.83273             1.83273             
696                 0.000696            383.659             0.000638921         1.85351             1.83497             1.83497             
697                 0.000697            383.689             0.000640776         1.85577             1.83721             1.83721             
698                 0.000698            383.719             0.000642634         1.85803             1.83945             1.83945             
699                 0.000699            383.749             0.000644495         1.86029             1.84168             1.84168             
700                 0.0007              383.779             0.000646357         1.86254             1.84391             1.84391             
701                 0.000701            383.809             0.000648222         1.86479             1.84614             1.84614             
702                 0.000702            383.839             0.000650089         1.86704             1.84837             1.84837             
703                 0.000703            383.869             0.000651958         1.86928             1.85059             1.85059             
704                 0.000704            383.898             0.00065383          1.87153             1.85281             1.85281             
705                 0.000705            383.928             0.000655704         1.87377             1.85503             1.85503             
706                 0.000706            383.957             0.00065758          1.876               1.85724             1.85724             
707                 0.000707            383.987             0.000659458         1.87824             1.85945             1.85945             
708                 0.000708            384.016             0.000661338         1.88047             1.86166             1.86166             
709                 0.000709            384.046             0.000663221         1.8827              1.86387             1.86387             
710                 0.00071             384.075             0.000665106         1.88492             1.86607             1.86607             
711                 0.000711            384.104             0.000666993         1.88715             1.86827             1.86827             
712                 0.000712            384.133             0.000668882         1.88937             1.87047             1.87047             
713                 0.000713            384.162             0.000670774         1.89158             1.87267             1.87267             
714                 0.000714            384.191             0.000672668         1.8938              1.87486             1.87486             
715                 0.000715            384.22              0.000674564         1.89601             1.87705             1.87705             
716                 0.000716            384.249             0.000676462         1.89822             1.87924             1.87924             
717                 0.000717            384.278             0.000678362         1.90043             1.88142             1.88142             
718                 0.000718            384.306             0.000680265         1.90263             1.8836              1.8836              
719                 0.000719            384.335             0.00068217          1.90481             1.88576             1.88576             
720                 0.00072             384.364             0.000684077         1.90701             1.88794             1.88794             
721                 0.000721            384.392             0.000685986         1.9092              1.89011             1.89011             
722                 0.000722            384.421             0.000687898         1.91139             1.89228             1.89228             
723                 0.000723            384.449             0.000689811         1.91358             1.89445             1.89445             
724                 0.000724            384.477             0.000691727         1.91577             1.89661             1.89661             
725                 0.000725            384.506             0.000693645         1.91795             1.89877             1.89877             
726                 0.000726            384.534             0.000695565         1.92014             1.90093             1.90093             
727                 0.000727            384.562             0.000697487         1.92231             1.90309             1.90309             
728                 0.000728            384.59              0.000699412         1.92449             1.90524             1.90524             
729                 0.000729            384.618             0.000701338         1.92666             1.9074              1.9074              
730                 0.00073             384.646             0.000703267         1.92885             1.90956             1.90956             
731                 0.000731            384.674             0.000705198         1.93102             1.91171             1.91171             
732                 0.000732            384.702             0.000707131         1.93319             1.91385             1.91385             
733                 0.000733            384.73              0.000709067         1.93535             1.916               1.916               
734                 0.000734            384.757             0.000711004         1.93751             1.91813             1.91813             
735                 0.000735            384.785             0.000712944         1.93967             1.92027             1.92027             
736                 0.000736            384.813             0.000714886         1.94182             1.9224              1.9224              
737                 0.000737            384.84              0.00071683          1.94397             1.92453             1.92453             
738                 0.000738            384.867             0.000718776         1.94612             1.92666             1.92666             
739                 0.000739            384.895             0.000720724         1.94827             1.92878             1.92878             
740                 0.00074             384.922             0.000722675         1.95041             1.93091             1.93091             
741                 0.000741            384.95              0.000724627         1.95255             1.93303             1.93303             
742                 0.000742            384.977             0.000726582         1.95469             1.93514             1.93514             
743                 0.000743            385.004             0.000728539         1.95682             1.93726             1.93726             
744                 0.000744            385.031             0.000730498         1.95896             1.93937             1.93937             
745                 0.000745            385.058             0.000732459         1.96109             1.94148             1.94148             
746                 0.000746            385.085             0.000734422         1.96321             1.94358             1.94358             
747                 0.000747            385.112             0.000736387         1.96534             1.94568             1.94568             
748                 0.000748            385.139             0.000738355         1.96746             1.94779             1.94779             
749                 0.000749            385.166             0.000740324         1.96958             1.94988             1.94988             
750                 0.00075             385.192             0.000742296         1.9717              1.95198             1.95198             
751                 0.000751            385.219             0.00074427          1.97381             1.95407             1.95407             
752                 0.000752            385.246             0.000746246         1.97592             1.95616             1.95616             
753                 0.000753            385.272             0.000748224         1.97803             1.95825             1.95825             
754                 0.000754            385.299             0.000750204         1.98013             1.96033             1.96033             
755                 0.000755            385.325             0.000752186         1.98224             1.96241             1.96241             
756                 0.000756            385.351             0.00075417          1.98434             1.96449             1.96449             
757                 0.000757            385.378             0.000756157         1.98643             1.96657             1.96657             
758                 0.000758            385.404             0.000758145         1.98853             1.96864             1.96864             
759                 0.000759            385.43              0.000760136         1.99062             1.97071             1.97071             
760                 0.00076             385.456             0.000762129         1.99271             1.97278             1.97278             
761                 0.000761            385.483             0.000764124         1.9948              1.97485             1.97485             
762                 0.000762            385.509             0.00076612          1.99688             1.97691             1.97691             
763                 0.000763            385.535             0.000768119         1.99896             1.97897             1.97897             
764                 0.000764            385.56              0.00077012          2.00104             1.98103             1.98103             
765                 0.000765            385.586             0.000772124         2.00312             1.98309             1.98309             
766                 0.000766            385.612             0.000774129         2.00519             1.98514             1.98514             
767                 0.000767            385.638             0.000776136         2.00726             1.98719             1.98719             
768                 0.000768            385.664             0.000778145         2.00933             1.98924             1.98924             
769                 0.000769            385.689             0.000780157         2.0114              1.99128             1.99128             
770                 0.00077             385.715             0.00078217          2.01346             1.99332             1.99332             
771                 0.000771            385.74              0.000784186         2.01552             1.99536             1.99536             
772                 0.000772            385.766             0.000786203         2.01758             1.9974              1.9974              
773                 0.000773            385.791             0.000788223         2.01963             1.99943             1.99943             
774                 0.000774            385.817             0.000790245         2.02168             2.00147             2.00147             
775                 0.000775            385.842             0.000792268         2.02373             2.00349             2.00349             
776                 0.000776            385.867             0.000794294         2.02578             2.00552             2.00552             
777                 0.000777            385.892             0.000796322         2.02782             2.00755             2.00755             
778                 0.000778            385.917             0.000798352         2.02987             2.00957             2.00957             
779                 0.000779            385.943             0.000800384         2.0319              2.01159             2.01159             
780                 0.00078             385.968             0.000802418         2.03394             2.0136              2.0136              
781                 0.000781            385.993             0.000804454         2.03597             2.01561             2.01561             
782                 0.000782            386.018             0.000806492         2.03801             2.01763             2.01763             
783                 0.000783            386.042             0.000808532         2.04003             2.01963             2.01963             
784                 0.000784            386.067             0.000810574         2.04206             2.02164             2.02164             
785                 0.000785            386.092             0.000812618         2.04408             2.02364             2.02364             
786                 0.000786            386.117             0.000814664         2.0461              2.02564             2.02564             
787                 0.000787            386.141             0.000816712         2.04812             2.02764             2.02764             
788                 0.000788            386.166             0.000818762         2.05014             2.02964             2.02964             
789                 0.000789            386.19              0.000820814         2.05215             2.03163             2.03163             
790                 0.00079             386.215             0.000822868         2.05416             2.03362             2.03362             
791                 0.000791            386.239             0.000824925         2.05617             2.03561             2.03561             
792                 0.000792            386.264             0.000826983         2.05817             2.03759             2.03759             
793                 0.000793            386.288             0.000829043         2.06018             2.03957             2.03957             
794                 0.000794            386.312             0.000831105         2.06218             2.04155             2.04155             
795                 0.000795            386.337             0.000833169         2.06417             2.04353             2.04353             
796                 0.000796            386.361             0.000835236         2.06617             2.04551             2.04551             
797                 0.000797            386.385             0.000837304         2.06816             2.04748             2.04748             
798                 0.000798            386.409             0.000839374         2.07015             2.04945             2.04945             
799                 0.000799            386.433             0.000841446         2.07214             2.05142             2.05142             
800                 0.0008              386.457             0.00084352          2.07412             2.05338             2.05338             
801                 0.000801            386.481             0.000845596         2.0761              2.05534             2.05534             
802                 0.000802            386.505             0.000847674         2.07808             2.0573              2.0573              
803                 0.000803            386.529             0.000849754         2.08006             2.05926             2.05926             
804                 0.000804            386.553             0.000851836         2.08203             2.06121             2.06121             
805                 0.000805            386.576             0.00085392          2.08401             2.06317             2.06317             
806                 0.000806            386.6               0.000856006         2.08597             2.06512             2.06512             
807                 0.000807            386.624             0.000858094         2.08794             2.06706             2.06706             
808                 0.000808            386.647             0.000860184         2.08991             2.06901             2.06901             
809                 0.000809            386.671             0.000862276         2.09187             2.07095             2.07095             
810                 0.00081             386.694             0.00086437          2.09383             2.07289             2.07289             
811                 0.000811            386.718             0.000866466         2.09578             2.07482             2.07482             
812                 0.000812            386.741             0.000868563         2.09774             2.07676             2.07676             
813                 0.000813            386.764             0.000870663         2.09969             2.07869             2.07869             
814                 0.000814            386.788             0.000872765         2.10164             2.08062             2.08062             
815                 0.000815            386.811             0.000874868         2.10358             2.08255             2.08255             
816                 0.000816            386.834             0.000876974         2.10553             2.08447             2.08447             
817                 0.000817            386.857             0.000879081         2.10747             2.08639             2.08639             
818                 0.000818            386.88              0.000881191         2.10941             2.08831             2.08831             
819                 0.000819            386.903             0.000883302         2.11134             2.09023             2.09023             
820                 0.00082             386.926             0.000885415         2.11328             2.09214             2.09214             
821                 0.000821            386.949             0.000887531         2.11521             2.09406             2.09406             
822                 0.000822            386.972             0.000889648         2.11714             2.09596             2.09596             
823                 0.000823            386.995             0.000891767         2.11906             2.09787             2.09787             
824                 0.000824            387.018             0.000893888         2.12099             2.09978             2.09978             
825                 0.000825            387.04              0.000896011         2.12291             2.10168             2.10168             
826                 0.000826            387.063             0.000898135         2.12483             2.10358             2.10358             
827                 0.000827            387.086             0.000900262         2.12674             2.10547             2.10547             
828                 0.000828            387.108             0.000902391         2.12866             2.10737             2.10737             
829                 0.000829            387.131             0.000904521         2.13057             2.10926             2.10926             
830                 0.00083             387.153             0.000906654         2.13247             2.11115             2.11115             
831                 0.000831            387.176             0.000908788         2.13438             2.11304             2.11304             
832                 0.000832            387.198             0.000910925         2.13628             2.11492             2.11492             
833                 0.000833            387.221             0.000913063         2.13819             2.1168              2.1168              
834                 0.000834            387.243             0.000915203         2.14008             2.11868             2.11868             
835                 0.000835            387.265             0.000917345         2.14198             2.12056             2.12056             
836                 0.000836            387.287             0.000919489         2.14387             2.12244             2.12244             
837                 0.000837            387.31              0.000921634         2.14577             2.12431             2.12431             
838                 0.000838            387.332             0.000923782         2.14766             2.12618             2.12618             
839                 0.000839            387.354             0.000925932         2.14954             2.12805             2.12805             
840                 0.00084             387.376             0.000928083         2.15143             2.12991             2.12991             
841                 0.000841            387.398             0.000930236         2.15331             2.13177             2.13177             
842                 0.000842            387.42              0.000932392         2.15519             2.13363             2.13363             
843                 0.000843            387.442             0.000934549         2.15706             2.13549             2.13549             
844                 0.000844            387.464             0.000936708         2.15894             2.13735             2.13735             
845                 0.000845            387.485             0.000938868         2.16081             2.1392              2.1392              
846                 0.000846            387.507             0.000941031         2.16268             2.14105             2.14105             
847                 0.000847            387.529             0.000943196         2.16455             2.1429              2.1429              
848                 0.000848            387.551             0.000945362         2.16641             2.14475             2.14475             
849                 0.000849            387.572             0.00094753          2.16827             2.14659             2.14659             
850                 0.00085             387.594             0.0009497           2.17013             2.14843             2.14843             
851                 0.000851            387.615             0.000951872         2.17199             2.15027             2.15027             
852                 0.000852            387.637             0.000954046         2.17384             2.1521              2.1521              
853                 0.000853            387.658             0.000956222         2.1757              2.15394             2.15394             
854                 0.000854            387.68              0.000958399         2.17755             2.15577             2.15577             
855                 0.000855            387.701             0.000960579         2.17939             2.1576              2.1576              
856                 0.000856            387.722             0.00096276          2.18124             2.15943             2.15943             
857                 0.000857            387.744             0.000964943         2.18308             2.16125             2.16125             
858                 0.000858            387.765             0.000967128         2.18492             2.16307             2.16307             
859                 0.000859            387.786             0.000969315         2.18676             2.16489             2.16489             
860                 0.00086             387.807             0.000971503         2.18859             2.16671             2.16671             
861                 0.000861            387.828             0.000973694         2.19043             2.16852             2.16852             
862                 0.000862            387.849             0.000975886         2.19226             2.17034             2.17034             
863                 0.000863            387.871             0.00097808          2.19409             2.17215             2.17215             
864                 0.000864            387.892             0.000980276         2.19591             2.17395             2.17395             
865                 0.000865            387.912             0.000982474         2.19774             2.17576             2.17576             
866                 0.000866            387.933             0.000984673         2.19956             2.17756             2.17756             
867                 0.000867            387.954             0.000986875         2.20138             2.17936             2.17936             
868                 0.000868            387.975             0.000989078         2.20319             2.18116             2.18116             
869                 0.000869            387.996             0.000991283         2.20501             2.18296             2.18296             
870                 0.00087             388.017             0.00099349          2.20682             2.18475             2.18475             
871                 0.000871            388.037             0.000995698         2.20863             2.18654             2.18654             
872                 0.000872            388.058             0.000997909         2.21044             2.18833             2.18833             
873                 0.000873            388.078             0.00100012          2.21224             2.19012             2.19012             
874                 0.000874            388.099             0.00100234          2.21404             2.1919              2.1919              
875                 0.000875            388.12              0.00100455          2.21584             2.19368             2.19368             
876                 0.000876            388.14              0.00100677          2.21764             2.19546             2.19546             
877                 0.000877            388.16              0.00100899          2.21944             2.19724             2.19724             
878                 0.000878            388.181             0.00101121          2.22123             2.19902             2.19902             
879                 0.000879            388.201             0.00101343          2.22302             2.20079             2.20079             
880                 0.00088             388.222             0.00101566          2.22481             2.20256             2.20256             
881                 0.000881            388.242             0.00101788          2.22659             2.20433             2.20433             
882                 0.000882            388.262             0.00102011          2.22838             2.20609             2.20609             
883                 0.000883            388.282             0.00102234          2.23016             2.20786             2.20786             
884                 0.000884            388.302             0.00102457          2.23194             2.20962             2.20962             
885                 0.000885            388.323             0.00102681          2.23371             2.21138             2.21138             
886                 0.000886            388.343             0.00102904          2.23549             2.21313             2.21313             
887                 0.000887            388.363             0.00103128          2.23726             2.21489             2.21489             
888                 0.000888            388.383             0.00103352          2.23903             2.21664             2.21664             
889                 0.000889            388.403             0.00103576          2.2408              2.21839             2.21839             
890                 0.00089             388.422             0.001038            2.24256             2.22014             2.22014             
891                 0.000891            388.442             0.00104025          2.24433             2.22188             2.22188             
892                 0.000892            388.462             0.00104249          2.24609             2.22363             2.22363             
893                 0.000893            388.482             0.00104474          2.24784             2.22537             2.22537             
894                 0.000894            388.502             0.00104699          2.2496              2.2271              2.2271              
895                 0.000895            388.521             0.00104924          2.25135             2.22884             2.22884             
896                 0.000896            388.541             0.0010515           2.25311             2.23057             2.23057             
897                 0.000897            388.561             0.00105375          2.25486             2.23231             2.23231             
898                 0.000898            388.58              0.00105601          2.2566              2.23404             2.23404             
899                 0.000899            388.6               0.00105827          2.25835             2.23576             2.23576             
900                 0.0009              388.619             0.00106053          2.26009             2.23749             2.23749             
901                 0.000901            388.639             0.00106279          2.26183             2.23921             2.23921             
902                 0.000902            388.658             0.00106505          2.26357             2.24093             2.24093             
903                 0.000903            388.678             0.00106732          2.2653              2.24265             2.24265             
904                 0.000904            388.697             0.00106958          2.26704             2.24437             2.24437             
905                 0.000905            388.716             0.00107185          2.26877             2.24608             2.24608             
906                 0.000906            388.736             0.00107412          2.2705              2.24779             2.24779             
907                 0.000907            388.755             0.00107639          2.27222             2.2495              2.2495              
908                 0.000908            388.774             0.00107867          2.27395             2.25121             2.25121             
909                 0.000909            388.793             0.00108094          2.27567             2.25291             2.25291             
910                 0.00091             388.813             0.00108322          2.27739             2.25461             2.25461             
911                 0.000911            388.832             0.0010855           2.27911             2.25631             2.25631             
912                 0.000912            388.851             0.00108778          2.28082             2.25801             2.25801             
913                 0.000913            388.87              0.00109006          2.28253             2.25971             2.25971             
914                 0.000914            388.889             0.00109235          2.28424             2.2614              2.2614              
915                 0.000915            388.908             0.00109463          2.28595             2.26309             2.26309             
916                 0.000916            388.927             0.00109692          2.28766             2.26478             2.26478             
917                 0.000917            388.945             0.00109921          2.28936             2.26647             2.26647             
918                 0.000918            388.964             0.0011015           2.29107             2.26816             2.26816             
919                 0.000919            388.983             0.0011038           2.29277             2.26984             2.26984             
920                 0.00092             389.002             0.00110609          2.29446             2.27152             2.27152             
921                 0.000921            389.021             0.00110839          2.29616             2.2732              2.2732              
922                 0.000922            389.039             0.00111068          2.29785             2.27487             2.27487             
923                 0.000923            389.058             0.00111298          2.29954             2.27655             2.27655             
924                 0.000924            389.077             0.00111528          2.30123             2.27822             2.27822             
925                 0.000925            389.095             0.00111759          2.30292             2.27989             2.27989             
926                 0.000926            389.114             0.00111989          2.3046              2.28156             2.28156             
927                 0.000927            389.132             0.0011222           2.30629             2.28322             2.28322             
928                 0.000928            389.151             0.00112451          2.30797             2.28489             2.28489             
929                 0.000929            389.169             0.00112682          2.30964             2.28655             2.28655             
930                 0.00093             389.188             0.00112913          2.31132             2.28821             2.28821             
931                 0.000931            389.206             0.00113144          2.31299             2.28986             2.28986             
932                 0.000932            389.224             0.00113375          2.31466             2.29152             2.29152             
933                 0.000933            389.243             0.00113607          2.31633             2.29317             2.29317             
934                 0.000934            389.261             0.00113839          2.318               2.29482             2.29482             
935                 0.000935            389.279             0.00114071          2.31966             2.29647             2.29647             
936                 0.000936            389.297             0.00114303          2.32133             2.29811             2.29811             
937                 0.000937            389.315             0.00114535          2.32299             2.29976             2.29976             
938                 0.000938            389.334             0.00114768          2.32465             2.3014              2.3014              
939                 0.000939            389.352             0.00115             2.3263              2.30304             2.30304             
940                 0.00094             389.37              0.00115233          2.32796             2.30468             2.30468             
941                 0.000941            389.388             0.00115466          2.32961             2.30631             2.30631             
942                 0.000942            389.406             0.00115699          2.33126             2.30795             2.30795             
943                 0.000943            389.424             0.00115933          2.33291             2.30958             2.30958             
944                 0.000944            389.442             0.00116166          2.33455             2.31121             2.31121             
945                 0.000945            389.46              0.001164            2.3362              2.31283             2.31283             
946                 0.000946            389.477             0.00116633          2.33784             2.31446             2.31446             
947                 0.000947            389.495             0.00116867          2.33948             2.31608             2.31608             
948                 0.000948            389.513             0.00117101          2.34111             2.3177              2.3177              
949                 0.000949            389.531             0.00117336          2.34275             2.31932             2.31932             
950                 0.00095             389.548             0.0011757           2.34438             2.32094             2.32094             
951                 0.000951            389.566             0.00117805          2.34601             2.32255             2.32255             
952                 0.000952            389.584             0.0011804           2.34764             2.32416             2.32416             
953                 0.000953            389.601             0.00118274          2.34927             2.32577             2.32577             
954                 0.000954            389.619             0.0011851           2.35089             2.32738             2.32738             
955                 0.000955            389.637             0.00118745          2.35251             2.32899             2.32899             
956                 0.000956            389.654             0.0011898           2.35413             2.33059             2.33059             
957                 0.000957            389.672             0.00119216          2.35575             2.33219             2.33219             
958                 0.000958            389.689             0.00119452          2.35737             2.33379             2.33379             
959                 0.000959            389.706             0.00119687          2.35898             2.33539             2.33539             
960                 0.00096             389.724             0.00119924          2.36059             2.33699             2.33699             
961                 0.000961            389.741             0.0012016           2.3622              2.33858             2.33858             
962                 0.000962            389.758             0.00120396          2.36381             2.34017             2.34017             
963                 0.000963            389.776             0.00120633          2.36542             2.34176             2.34176             
964                 0.000964            389.793             0.00120869          2.36702             2.34335             2.34335             
965                 0.000965            389.81              0.00121106          2.36862             2.34494             2.34494             
966                 0.000966            389.827             0.00121343          2.37022             2.34652             2.34652             
967                 0.000967            389.845             0.0012158           2.37182             2.3481              2.3481              
968                 0.000968            389.862             0.00121818          2.37341             2.34968             2.34968             
969                 0.000969            389.879             0.00122055          2.37501             2.35126             2.35126             
970                 0.00097             389.896             0.00122293          2.3766              2.35283             2.35283             
971                 0.000971            389.913             0.00122531          2.37819             2.35441             2.35441             
972                 0.000972            389.93              0.00122769          2.37977             2.35598             2.35598             
973                 0.000973            389.947             0.00123007          2.38136             2.35755             2.35755             
974                 0.000974            389.964             0.00123245          2.38294             2.35911             2.35911             
975                 0.000975            389.981             0.00123484          2.38452             2.36068             2.36068             
976                 0.000976            389.997             0.00123722          2.3861              2.36224             2.36224             
977                 0.000977            390.014             0.00123961          2.38768             2.3638              2.3638              
978                 0.000978            390.031             0.001242            2.38925             2.36536             2.36536             
979                 0.000979            390.048             0.00124439          2.39083             2.36692             2.36692             
980                 0.00098             390.065             0.00124678          2.3924              2.36847             2.36847             
981                 0.000981            390.081             0.00124918          2.39397             2.37003             2.37003             
982                 0.000982            390.098             0.00125157          2.39553             2.37158             2.37158             
983                 0.000983            390.115             0.00125397          2.3971              2.37313             2.37313             
984                 0.000984            390.131             0.00125637          2.39866             2.37467             2.37467             
985                 0.000985            390.148             0.00125877          2.40022             2.37622             2.37622             
986                 0.000986            390.164             0.00126117          2.40178             2.37776             2.37776             
987                 0.000987            390.181             0.00126357          2.40334             2.3793              2.3793              
988                 0.000988            390.197             0.00126598          2.40489             2.38084             2.38084             
989                 0.000989            390.214             0.00126838          2.40645             2.38238             2.38238             
990                 0.00099             390.23              0.00127079          2.408               2.38392             2.38392             
991                 0.000991            390.247             0.0012732           2.40954             2.38545             2.38545             
992                 0.000992            390.263             0.00127561          2.41109             2.38698             2.38698             
993                 0.000993            390.279             0.00127803          2.41264             2.38851             2.38851             
994                 0.000994            390.296             0.00128044          2.41418             2.39004             2.39004             
995                 0.000995            390.312             0.00128286          2.41572             2.39156             2.39156             
996                 0.000996            390.328             0.00128527          2.41726             2.39309             2.39309             
997                 0.000997            390.345             0.00128769          2.4188              2.39461             2.39461             
998                 0.000998            390.361             0.00129011          2.42033             2.39613             2.39613             
999                 0.000999            390.377             0.00129253          2.42186             2.39765             2.39765             
1000                0.001               390.393             0.00129496          2.4234              2.39916             2.39916             
